File: SnIn/agsn/output_xrd/ructureHKL.csv
H,K,L,Distance,2theta/TOF,Mult
3,-11,-4,4.438,20.0071,8
4,-10,-6,4.4302,20.0427,8
-2,4,12,4.4283,20.0513,8
3,-9,-8,4.4253,20.0651,8
7,5,10,4.4211,20.0843,8
0,-10,-7,4.4179,20.099,4
10,6,-7,4.4154,20.1105,8
12,6,-4,4.4128,20.1225,8
12,7,1,4.4089,20.1405,8
9,-6,8,4.4067,20.1506,8
-9,-7,7,4.4029,20.1682,8
4,8,9,4.3951,20.2044,8
-10,5,-8,4.3884,20.2356,8
-8,0,11,4.3828,20.2617,4
-6,-6,-10,4.3801,20.2743,1
-11,6,6,4.3782,20.2832,4
6,-10,-5,4.3765,20.2912,8
-1,12,0,4.3721,20.3118,4
12,-7,2,4.3699,20.3221,8
-4,-11,-4,4.3687,20.3278,4
11,-8,2,4.3662,20.3395,8
1,12,1,4.3593,20.3721,4
-6,-9,-7,4.3553,20.391,8
-9,-3,10,4.3519,20.4071,8
6,1,12,4.3439,20.4451,8
5,10,-6,4.3421,20.4536,8
0,12,-2,4.331,20.5066,4
-3,10,7,4.3305,20.509,8
6,-11,-2,4.3295,20.5138,8
8,2,-11,4.3232,20.544,8
-1,12,-2,4.3216,20.5517,8
4,-4,12,4.3121,20.5975,8
0,-8,-10,4.3074,20.6202,4
10,0,10,4.3051,20.6313,4
-10,-8,5,4.3017,20.6478,8
-1,8,10,4.2981,20.6653,8
0,-9,-9,4.2952,20.6794,4
12,4,7,4.2927,20.6916,8
7,-4,-11,4.2889,20.7101,8
-3,12,1,4.2844,20.7321,8
6,-5,-11,4.2795,20.7561,8
2,8,-10,4.2708,20.7989,8
6,11,-3,4.2685,20.8102,8
-9,-10,0,4.2654,20.8255,4
2,9,-9,4.2589,20.8576,8
-4,11,-5,4.2577,20.8636,8
10,-9,3,4.2536,20.8839,8
9,-4,-10,4.2512,20.8958,8
-3,5,12,4.2482,20.9108,8
-7,0,12,4.239,20.9567,4
-2,12,3,4.2342,20.9807,8
0,-10,-8,4.2315,20.9942,4
6,3,12,4.23,21.0018,8
-3,8,10,4.2263,21.0204,8
7,-1,12,4.2253,21.0254,8
-1,10,-8,4.2227,21.0385,8
-11,6,7,4.2195,21.0546,8
11,3,9,4.2168,21.0682,8
7,-11,2,4.2121,21.092,8
-9,-6,-9,4.1987,21.1601,4
-6,7,-10,4.1949,21.1795,8
3,12,3,4.1908,21.2005,4
-3,7,-11,4.1879,21.2153,8
6,-11,4,4.1872,21.2189,8
10,-3,10,4.1809,21.2512,4
0,-6,12,4.1775,21.2687,4
10,-9,-4,4.1732,21.2909,8
8,7,-9,4.171,21.3023,8
-1,6,12,4.1691,21.3121,8
8,8,8,4.1638,21.3395,1
12,-8,2,4.1597,21.3608,8
7,11,3,4.1558,21.3811,8
-3,10,-8,4.1545,21.3879,8
12,0,-9,4.1408,21.4595,4
-4,12,3,4.1323,21.5041,8
11,-9,-2,4.1308,21.512,8
-8,-6,-10,4.1302,21.5152,8
-8,-10,-5,4.1272,21.531,8
11,0,-10,4.123,21.5532,4
-7,-3,12,4.1202,21.568,8
1,11,7,4.1147,21.5972,8
5,5,12,4.1126,21.6084,1
11,1,10,4.1104,21.6201,8
12,8,3,4.1055,21.6462,8
7,-8,9,4.1022,21.6638,8
-6,-10,-7,4.0965,21.6943,8
10,4,-10,4.0913,21.7222,8
0,12,-5,4.0903,21.7276,4
-9,10,-4,4.0864,21.7486,8
0,9,-10,4.0809,21.7783,4
10,-9,-5,4.0761,21.8042,8
7,9,8,4.0707,21.8335,8
6,12,0,4.0677,21.8498,4
-10,-10,-2,4.0621,21.8803,1
5,12,3,4.0605,21.889,8
5,-7,11,4.0578,21.9038,8
11,-6,-8,4.0563,21.912,8
2,-9,-10,4.0497,21.9481,8
8,-5,-11,4.0456,21.9707,8
1,10,9,4.0387,22.0087,8
9,-7,-9,4.0348,22.0302,8
12,-6,7,4.0323,22.044,8
-9,8,-8,4.0283,22.0662,8
6,5,12,4.0266,22.0756,8
2,-10,-9,4.016,22.1346,8
8,10,-6,4.0132,22.1503,8
12,-7,6,4.0094,22.1715,8
-11,9,-4,4.0066,22.1872,8
4,-11,-7,3.9986,22.2322,8
-9,-6,-10,3.9979,22.2361,8
12,-9,0,3.9933,22.2621,4
9,-11,-1,3.9883,22.2903,8
10,5,-10,3.9842,22.3136,8
5,6,12,3.9809,22.3323,8
-3,-10,-9,3.9789,22.3437,8
6,-7,11,3.9752,22.3647,8
-9,-1,12,3.9703,22.3927,8
4,12,-5,3.9689,22.4007,8
10,3,-11,3.9632,22.4333,8
9,-11,2,3.9594,22.4551,8
-4,-8,-11,3.9507,22.5052,8
12,4,-9,3.9495,22.5122,8
11,10,0,3.9453,22.5364,4
2,-11,-8,3.9414,22.559,8
11,10,1,3.9359,22.591,8
-7,12,2,3.9319,22.6142,8
8,-4,12,3.9248,22.6557,8
8,-6,11,3.9199,22.6844,8
11,0,11,3.9138,22.7202,4
11,-10,2,3.908,22.7544,8
5,12,-5,3.9052,22.7709,8
11,-1,11,3.903,22.7839,4
-10,7,9,3.8974,22.8171,8
9,-10,6,3.8915,22.8522,8
5,-8,-11,3.8879,22.8736,8
7,12,3,3.886,22.8849,8
8,11,-5,3.8836,22.8993,8
-11,2,-11,3.8711,22.9742,4
4,12,-6,3.8672,22.9977,8
8,12,0,3.8652,23.0098,4
11,-10,-3,3.8629,23.0237,8
-4,-11,-8,3.8588,23.0485,8
8,12,-1,3.8564,23.063,8
12,-5,9,3.8529,23.0842,8
0,-8,12,3.8511,23.0952,4
-10,0,12,3.8494,23.1055,4
12,8,-6,3.8452,23.1311,8
-5,-7,12,3.8404,23.1604,8
-11,5,-10,3.8385,23.172,8
8,12,2,3.8302,23.2229,8
-2,8,12,3.8248,23.2562,8
-11,9,-6,3.8224,23.271,8
0,-11,9,3.816,23.3106,4
-9,-4,12,3.8107,23.3435,8
-5,12,6,3.8082,23.359,8
8,9,-9,3.8054,23.3764,8
5,11,8,3.8002,23.4089,8
-3,-8,12,3.7928,23.4552,8
8,-11,6,3.7882,23.4841,8
8,-7,11,3.7856,23.5004,8
9,10,-7,3.7788,23.5433,8
-9,-11,5,3.773,23.58,8
-10,10,6,3.7677,23.6137,8
8,10,-8,3.7609,23.657,8
-3,11,9,3.7593,23.6672,8
4,12,7,3.7566,23.6845,8
12,-1,-11,3.7534,23.7049,8
-9,12,1,3.748,23.7396,8
-7,9,10,3.742,23.7782,8
10,7,10,3.7352,23.8221,4
6,11,8,3.732,23.8429,8
-8,12,-4,3.7306,23.8519,8
-1,12,8,3.7269,23.876,8
-9,5,12,3.7237,23.8968,8
-5,-9,11,3.7189,23.9281,8
4,-11,-9,3.7169,23.9412,8
2,12,8,3.709,23.9929,8
-9,9,-9,3.7012,24.0442,4
5,8,12,3.6954,24.0825,8
10,-6,11,3.6902,24.117,8
9,-11,-6,3.6853,24.1495,8
9,-7,-11,3.6829,24.1655,8
1,-9,12,3.6808,24.1795,8
2,-10,11,3.6685,24.2618,8
5,11,-9,3.6644,24.2894,8
-7,12,6,3.6631,24.2981,8
9,-10,8,3.6602,24.3177,8
7,11,8,3.656,24.346,8
-8,-8,-11,3.6465,24.4104,1
11,10,6,3.6438,24.4288,8
-4,12,8,3.64,24.4547,8
11,3,12,3.6367,24.4772,8
-9,12,-4,3.6322,24.508,8
-9,-6,12,3.6251,24.5568,8
12,-4,11,3.6177,24.6078,8
-11,7,10,3.6143,24.6313,8
-8,-7,12,3.6072,24.6805,8
11,9,8,3.6025,24.7132,8
12,-11,0,3.5996,24.7335,4
12,-10,5,3.5974,24.7488,8
12,11,-1,3.5924,24.7838,8
12,0,12,3.5876,24.8175,4
2,12,-9,3.5824,24.8541,8
10,12,3,3.5793,24.876,8
-4,11,10,3.5754,24.9036,8
11,-6,-11,3.5736,24.9163,8
-9,12,-5,3.5676,24.9589,8
10,10,-8,3.5566,25.0373,1
-9,8,11,3.5544,25.0531,8
5,-9,12,3.5494,25.0889,8
9,-10,9,3.5384,25.1682,4
-6,12,8,3.533,25.2073,8
-5,-11,10,3.5286,25.2393,8
-10,6,12,3.5244,25.2698,8
-4,12,9,3.5201,25.3012,8
0,-11,-11,3.5143,25.3437,4
2,-10,12,3.5055,25.4083,8
12,-8,-9,3.5035,25.4231,8
12,-7,10,3.4946,25.4889,8
9,12,-6,3.4932,25.4993,8
-10,-11,-7,3.4914,25.5127,8
8,-8,12,3.4862,25.5514,8
-5,12,9,3.4754,25.6321,8
11,-11,6,3.4729,25.6509,8
11,-7,11,3.4709,25.6659,4
-7,12,8,3.4683,25.6855,8
8,11,9,3.4602,25.7467,8
-2,12,-10,3.4552,25.7846,8
10,-10,9,3.4446,25.8653,8
-7,-10,-11,3.4351,25.9381,8
-7,-9,12,3.431,25.9696,8
9,-9,11,3.4239,26.0244,8
12,12,0,3.42,26.0546,1
7,11,-10,3.4123,26.1144,8
-5,10,12,3.405,26.1714,8
8,12,8,3.3979,26.2271,4
12,5,12,3.3955,26.2459,4
12,8,-10,3.3842,26.3351,8
11,12,5,3.3739,26.417,8
-8,10,-11,3.3667,26.4745,8
1,-11,12,3.3657,26.4825,8
8,-9,12,3.3628,26.5058,8
6,-10,12,3.3557,26.5629,8
12,-10,-8,3.3471,26.6324,8
-8,11,10,3.3451,26.6486,8
11,-7,12,3.3318,26.757,8
-2,12,-11,3.3293,26.7774,8
-9,12,-8,3.323,26.8291,8
6,12,10,3.3116,26.9232,8
-11,11,-8,3.3055,26.9738,8
-8,12,9,3.2997,27.0222,8
12,11,-7,3.2925,27.0824,8
4,12,-11,3.2791,27.1952,8
12,-9,10,3.271,27.2638,8
7,12,-10,3.2581,27.3739,8
-10,12,8,3.245,27.4865,8
11,12,7,3.2405,27.5254,8
-11,-8,12,3.2358,27.5662,8
0,12,12,3.2214,27.6919,4
10,10,11,3.2178,27.7235,1
-10,9,12,3.2144,27.7534,8
-6,12,-11,3.2002,27.879,8
-3,12,12,3.187,27.9968,4
-9,11,11,3.166,28.1864,4
-4,12,12,3.1611,28.231,4
12,12,-7,3.1534,28.3013,1
-11,-10,-11,3.1395,28.4293,4
12,-11,9,3.1298,28.5192,8
-8,11,12,3.1175,28.6342,8
-10,11,-11,3.0982,28.8164,8
12,12,8,3.0835,28.9568,1
9,11,12,3.0594,29.1899,8
12,11,10,3.0439,29.3419,8
-11,-11,-11,3.0282,29.4974,1
-8,12,12,2.9986,29.7953,4
12,-10,12,2.9635,30.1565,4
-11,-11,12,2.9346,30.4607,1
-10,12,12,2.892,30.9205,4
11,12,12,2.8348,31.5605,4
12,12,12,2.7759,32.2482,1